#NPD
#:version 1.0
#:ports 2
#:frequencies 9
#:parameters Zri,SdB,Zinma
#:z0 50.0000 +0.00000j 50.0000 +0.00000j
#:fprecision 7
#:dprecision 6
#
# field  1: frequency      (Hz)
# field  2: Z11  real      (ohms)
# field  3: Z11  imaginary (ohms)
# field  4: Z12  real      (ohms)
# field  5: Z12  imaginary (ohms)
# field  6: Z21  real      (ohms)
# field  7: Z21  imaginary (ohms)
# field  8: Z22  real      (ohms)
# field  9: Z22  imaginary (ohms)
# field 10: S11  magnitude (dB)
# field 11: S11  angle     (degrees)
# field 12: S12  magnitude (dB)
# field 13: S12  angle     (degrees)
# field 14: S21  magnitude (dB)
# field 15: S21  angle     (degrees)
# field 16: S22  magnitude (dB)
# field 17: S22  angle     (degrees)
# field 18: Zin1 magnitude (ohms)
# field 19: Zin1 angle     (degrees)
# field 20: Zin2 magnitude (ohms)
# field 21: Zin2 angle     (degrees)
#
100.0000e+03 +0.00000     -5.00437e+03 +0.00000     -5.00487e+03 +0.00000     -5.00487e+03 +0.00000     -5.00487e+03 -85.9880     +173.86425 -10.9390e-09   -0.57269 -10.9390e-09   -0.57269 -85.9880       +4.99037  49.9950        +0.001  50.0050        +0.001
316.2278e+03 +0.00000     -1.58110e+03 +0.00000     -1.58268e+03 +0.00000     -1.58268e+03 +0.00000     -1.58268e+03 -66.0350     +177.72928 -1.08213e-06   -1.81062 -1.08213e-06   -1.81062 -66.0350       -1.35052  49.9501        +0.002  50.0499        -0.001
1.000000e+06 +0.00000     -495.486     +0.00000     -500.487     +0.00000     -500.487     +0.00000     -500.487     -46.0268     +173.59053 -108.419e-06   -5.73687 -108.419e-06   -5.73687 -46.0268       -5.06427  49.5059        +0.064  50.5002        -0.051
3.162278e+06 +0.00000     -142.452     +0.00000     -158.268     +0.00000     -158.268     +0.00000     -158.268     -26.0373     +161.36592 -10.8292e-03  -18.40465 -10.8292e-03  -18.40465 -26.0373      -18.17521  45.4858        +1.831  54.9761        -1.788
10.00000e+06 +0.00000     -34.5693e-03 +0.00000     -50.0487     +0.00000     -50.0487     +0.00000     -50.0487     -6.99450     +116.51680 -967.902e-03  -63.41120 -967.902e-03  -63.41120 -6.99450      -63.33921  35.3825       +44.988  70.7895       -44.952
31.62278e+06 +0.00000     +142.332     +0.00000     -15.8268     +0.00000     -15.8268     +0.00000     -15.8268     -170.564e-03  +38.32045 -14.1440     -141.65674 -14.1440     -141.65674 -170.564e-03 -141.63394  143.845       +88.186  17.4021       -88.188
100.0000e+06 +0.00000     +495.137     +0.00000     -5.00487     +0.00000     -5.00487     +0.00000     -5.00487     -1.73923e-03  +11.53145 -33.9751     -168.46135 -33.9751     -168.46135 -1.73923e-03 -168.45414  495.187       +89.943  5.05495       -89.943
316.2278e+06 +0.00000     +1.58000e+03 +0.00000     -1.58268     +0.00000     -1.58268     +0.00000     -1.58268     -17.3959e-06   +3.62510 -53.9734     -176.37262 -53.9734     -176.37262 -17.3959e-06 -176.37035  1.58000e+03   +89.998  1.58426       -89.998
1.000000e+09 +0.00000     +5.00092e+03 +0.00000     -500.487e-03 +0.00000     -500.487e-03 +0.00000     -500.487e-03 -173.957e-09   +1.14567 -73.9734     -178.85361 -73.9734     -178.85361 -173.958e-09 -178.85289  5.00092e+03   +90.000  500.537e-03   -90.000
